VARIABLES= Temp_[K], H-H298_[kcal/mol], G-H298_[kcal/mol], Cp_[cal/(mol-K)], S_[cal/(mol-K)], Viscosity_[gm/(cm-s)], Therm_Cond_[erg/(cm-s-K)], Dif_Co_with_H_[cm^2/s]
   298.15    0.000    -13.652      6.96      45.79     1.8050E-04  2610.           1.225    
   300.00    0.013    -13.737      6.96      45.83     1.8132E-04  2622.           1.239    
   310.00    0.082    -14.197      6.96      46.06     1.8570E-04  2689.           1.315    
   320.00    0.152    -14.658      6.97      46.28     1.9003E-04  2756.           1.393    
   330.00    0.222    -15.122      6.97      46.50     1.9431E-04  2822.           1.474    
   340.00    0.291    -15.588      6.97      46.71     1.9854E-04  2889.           1.555    
   350.00    0.361    -16.056      6.97      46.91     2.0272E-04  2955.           1.639    
   360.00    0.431    -16.527      6.98      47.10     2.0685E-04  3021.           1.724    
   370.00    0.501    -16.999      6.98      47.30     2.1094E-04  3086.           1.811    
   380.00    0.571    -17.472      6.99      47.48     2.1498E-04  3151.           1.900    
   390.00    0.640    -17.948      6.99      47.66     2.1898E-04  3217.           1.990    
   400.00    0.710    -18.426      7.00      47.84     2.2294E-04  3281.           2.082    
   410.00    0.780    -18.905      7.00      48.01     2.2686E-04  3346.           2.176    
   420.00    0.850    -19.386      7.01      48.18     2.3074E-04  3411.           2.271    
   430.00    0.921    -19.869      7.02      48.35     2.3459E-04  3475.           2.368    
   440.00    0.991    -20.353      7.02      48.51     2.3840E-04  3539.           2.467    
   450.00    1.061    -20.839      7.03      48.67     2.4217E-04  3603.           2.567    
   460.00    1.131    -21.326      7.04      48.82     2.4592E-04  3666.           2.668    
   470.00    1.202    -21.815      7.05      48.97     2.4963E-04  3730.           2.771    
   480.00    1.272    -22.306      7.06      49.12     2.5330E-04  3793.           2.876    
   490.00    1.343    -22.797      7.06      49.27     2.5695E-04  3856.           2.982    
   500.00    1.414    -23.291      7.07      49.41     2.6057E-04  3919.           3.090    
   510.00    1.484    -23.786      7.08      49.55     2.6416E-04  3982.           3.199    
   520.00    1.555    -24.282      7.09      49.69     2.6772E-04  4044.           3.309    
   530.00    1.626    -24.779      7.11      49.82     2.7125E-04  4107.           3.421    
   540.00    1.697    -25.278      7.12      49.95     2.7476E-04  4169.           3.535    
   550.00    1.769    -25.778      7.13      50.09     2.7824E-04  4231.           3.649    
   560.00    1.840    -26.280      7.14      50.21     2.8169E-04  4292.           3.766    
   570.00    1.911    -26.783      7.15      50.34     2.8512E-04  4354.           3.883    
   580.00    1.983    -27.287      7.17      50.47     2.8852E-04  4416.           4.002    
   590.00    2.055    -27.792      7.18      50.59     2.9191E-04  4477.           4.123    
   600.00    2.127    -28.299      7.19      50.71     2.9526E-04  4538.           4.245    
   610.00    2.199    -28.806      7.21      50.83     2.9860E-04  4599.           4.368    
   620.00    2.271    -29.315      7.22      50.94     3.0191E-04  4659.           4.492    
   630.00    2.343    -29.825      7.23      51.06     3.0521E-04  4720.           4.618    
   640.00    2.415    -30.336      7.25      51.17     3.0848E-04  4780.           4.745    
   650.00    2.488    -30.849      7.26      51.29     3.1173E-04  4841.           4.874    
   660.00    2.561    -31.362      7.28      51.40     3.1496E-04  4901.           5.003    
   670.00    2.634    -31.877      7.29      51.51     3.1817E-04  4961.           5.134    
   680.00    2.707    -32.392      7.31      51.62     3.2136E-04  5020.           5.267    
   690.00    2.780    -32.909      7.33      51.72     3.2453E-04  5080.           5.401    
   700.00    2.853    -33.427      7.34      51.83     3.2769E-04  5139.           5.535    
   710.00    2.927    -33.945      7.36      51.93     3.3082E-04  5199.           5.672    
   720.00    3.000    -34.465      7.38      52.04     3.3394E-04  5258.           5.809    
   730.00    3.074    -34.986      7.39      52.14     3.3704E-04  5317.           5.948    
   740.00    3.148    -35.508      7.41      52.24     3.4013E-04  5376.           6.088    
   750.00    3.222    -36.031      7.43      52.34     3.4319E-04  5434.           6.229    
   760.00    3.297    -36.555      7.44      52.44     3.4624E-04  5493.           6.372    
   770.00    3.371    -37.080      7.46      52.53     3.4928E-04  5551.           6.515    
   780.00    3.446    -37.605      7.48      52.63     3.5230E-04  5609.           6.660    
   790.00    3.521    -38.132      7.49      52.73     3.5530E-04  5667.           6.806    
   800.00    3.596    -38.660      7.51      52.82     3.5829E-04  5725.           6.954    
   810.00    3.671    -39.189      7.53      52.91     3.6126E-04  5783.           7.102    
   820.00    3.746    -39.718      7.55      53.01     3.6422E-04  5841.           7.252    
   830.00    3.822    -40.249      7.56      53.10     3.6716E-04  5898.           7.403    
   840.00    3.898    -40.780      7.58      53.19     3.7009E-04  5955.           7.555    
   850.00    3.973    -41.312      7.60      53.28     3.7301E-04  6013.           7.708    
   860.00    4.050    -41.846      7.61      53.37     3.7591E-04  6070.           7.863    
   870.00    4.126    -42.380      7.63      53.45     3.7880E-04  6127.           8.018    
   880.00    4.202    -42.915      7.65      53.54     3.8167E-04  6183.           8.175    
   890.00    4.279    -43.451      7.66      53.63     3.8454E-04  6240.           8.333    
   900.00    4.355    -43.987      7.68      53.71     3.8739E-04  6296.           8.492    
   910.00    4.432    -44.525      7.69      53.80     3.9022E-04  6353.           8.652    
   920.00    4.509    -45.063      7.71      53.88     3.9305E-04  6409.           8.813    
   930.00    4.586    -45.603      7.72      53.97     3.9586E-04  6465.           8.976    
   940.00    4.664    -46.143      7.74      54.05     3.9866E-04  6521.           9.139    
   950.00    4.741    -46.684      7.75      54.13     4.0145E-04  6577.           9.304    
   960.00    4.819    -47.225      7.76      54.21     4.0422E-04  6633.           9.470    
   970.00    4.896    -47.768      7.78      54.29     4.0699E-04  6688.           9.637    
   980.00    4.974    -48.311      7.79      54.37     4.0974E-04  6744.           9.805    
   990.00    5.052    -48.855      7.80      54.45     4.1248E-04  6799.           9.974    
  1000.01    5.130    -49.401      7.81      54.53     4.1522E-04  6854.           10.14    
  1010.00    5.208    -49.946      7.82      54.61     4.1794E-04  6909.           10.32    
  1020.00    5.287    -50.492      7.84      54.69     4.2065E-04  6964.           10.49    
  1030.00    5.365    -51.040      7.85      54.76     4.2335E-04  7019.           10.66    
  1040.00    5.444    -51.588      7.86      54.84     4.2603E-04  7073.           10.84    
  1050.00    5.522    -52.136      7.87      54.91     4.2871E-04  7128.           11.01    
  1060.00    5.601    -52.686      7.88      54.99     4.3138E-04  7182.           11.19    
  1070.00    5.680    -53.236      7.90      55.06     4.3404E-04  7237.           11.37    
  1080.00    5.759    -53.787      7.91      55.14     4.3669E-04  7291.           11.55    
  1090.00    5.838    -54.339      7.92      55.21     4.3933E-04  7345.           11.73    
  1100.00    5.917    -54.891      7.93      55.28     4.4196E-04  7399.           11.91    
  1110.00    5.997    -55.444      7.94      55.35     4.4458E-04  7453.           12.09    
  1120.00    6.076    -55.998      7.95      55.42     4.4719E-04  7506.           12.27    
  1130.00    6.156    -56.553      7.96      55.49     4.4979E-04  7560.           12.46    
  1140.00    6.236    -57.108      7.98      55.56     4.5239E-04  7613.           12.64    
  1150.00    6.315    -57.664      7.99      55.63     4.5497E-04  7667.           12.83    
  1160.00    6.395    -58.221      8.00      55.70     4.5755E-04  7720.           13.01    
  1170.00    6.475    -58.778      8.01      55.77     4.6011E-04  7773.           13.20    
  1180.00    6.555    -59.336      8.02      55.84     4.6267E-04  7826.           13.39    
  1190.00    6.636    -59.895      8.03      55.91     4.6522E-04  7879.           13.58    
  1200.00    6.716    -60.454      8.04      55.98     4.6776E-04  7931.           13.77    
  1210.00    6.796    -61.014      8.05      56.04     4.7029E-04  7984.           13.97    
  1220.00    6.877    -61.575      8.06      56.11     4.7282E-04  8036.           14.16    
  1230.00    6.958    -62.137      8.07      56.17     4.7534E-04  8089.           14.35    
  1240.00    7.038    -62.699      8.08      56.24     4.7784E-04  8141.           14.55    
  1250.00    7.119    -63.261      8.09      56.30     4.8035E-04  8193.           14.75    
  1260.00    7.200    -63.825      8.10      56.37     4.8284E-04  8245.           14.94    
  1270.00    7.281    -64.389      8.11      56.43     4.8532E-04  8297.           15.14    
  1280.00    7.362    -64.953      8.12      56.50     4.8780E-04  8349.           15.34    
  1290.00    7.444    -65.519      8.13      56.56     4.9027E-04  8401.           15.54    
  1300.00    7.525    -66.085      8.14      56.62     4.9273E-04  8452.           15.74    
  1310.00    7.606    -66.651      8.15      56.69     4.9519E-04  8504.           15.95    
  1320.00    7.688    -67.218      8.16      56.75     4.9764E-04  8555.           16.15    
  1330.00    7.770    -67.786      8.17      56.81     5.0008E-04  8606.           16.35    
  1340.00    7.851    -68.355      8.18      56.87     5.0251E-04  8658.           16.56    
  1350.00    7.933    -68.924      8.18      56.93     5.0494E-04  8709.           16.77    
  1360.00    8.015    -69.493      8.19      56.99     5.0736E-04  8760.           16.97    
  1370.00    8.097    -70.063      8.20      57.05     5.0977E-04  8810.           17.18    
  1380.00    8.179    -70.634      8.21      57.11     5.1218E-04  8861.           17.39    
  1390.00    8.261    -71.206      8.22      57.17     5.1458E-04  8912.           17.60    
  1400.00    8.343    -71.778      8.23      57.23     5.1697E-04  8962.           17.81    
  1410.00    8.426    -72.350      8.24      57.29     5.1936E-04  9013.           18.02    
  1420.00    8.508    -72.923      8.25      57.35     5.2174E-04  9063.           18.24    
  1430.00    8.591    -73.497      8.25      57.40     5.2411E-04  9113.           18.45    
  1440.00    8.673    -74.071      8.26      57.46     5.2648E-04  9163.           18.67    
  1450.00    8.756    -74.646      8.27      57.52     5.2884E-04  9213.           18.88    
  1460.00    8.839    -75.222      8.28      57.58     5.3120E-04  9263.           19.10    
  1470.00    8.921    -75.798      8.29      57.63     5.3354E-04  9313.           19.32    
  1480.00    9.004    -76.374      8.29      57.69     5.3589E-04  9363.           19.54    
  1490.00    9.087    -76.952      8.30      57.74     5.3822E-04  9412.           19.76    
  1500.00    9.170    -77.529      8.31      57.80     5.4055E-04  9462.           19.98    
  1510.00    9.253    -78.108      8.32      57.86     5.4288E-04  9511.           20.20    
  1520.00    9.337    -78.686      8.32      57.91     5.4520E-04  9560.           20.42    
  1530.00    9.420    -79.266      8.33      57.96     5.4751E-04  9610.           20.64    
  1540.00    9.503    -79.846      8.34      58.02     5.4982E-04  9659.           20.87    
  1550.00    9.587    -80.426      8.35      58.07     5.5212E-04  9708.           21.09    
  1560.00    9.670    -81.007      8.35      58.13     5.5441E-04  9757.           21.32    
  1570.00    9.754    -81.589      8.36      58.18     5.5670E-04  9805.           21.55    
  1580.00    9.838    -82.171      8.37      58.23     5.5899E-04  9854.           21.78    
  1590.00    9.921    -82.753      8.38      58.29     5.6127E-04  9903.           22.00    
  1600.00   10.005    -83.337      8.38      58.34     5.6354E-04  9951.           22.23    
  1610.00   10.089    -83.920      8.39      58.39     5.6581E-04 10000.           22.47    
  1620.00   10.173    -84.504      8.40      58.44     5.6807E-04 1.0048E+04       22.70    
  1630.00   10.257    -85.089      8.40      58.49     5.7033E-04 1.0096E+04       22.93    
  1640.00   10.341    -85.674      8.41      58.55     5.7258E-04 1.0144E+04       23.16    
  1650.00   10.425    -86.260      8.42      58.60     5.7483E-04 1.0192E+04       23.40    
  1660.00   10.509    -86.846      8.42      58.65     5.7707E-04 1.0240E+04       23.63    
  1670.00   10.593    -87.433      8.43      58.70     5.7931E-04 1.0288E+04       23.87    
  1680.00   10.678    -88.020      8.44      58.75     5.8154E-04 1.0336E+04       24.11    
  1690.00   10.762    -88.608      8.44      58.80     5.8377E-04 1.0383E+04       24.35    
  1700.00   10.847    -89.196      8.45      58.85     5.8599E-04 1.0431E+04       24.59    
  1710.00   10.931    -89.785      8.45      58.90     5.8821E-04 1.0478E+04       24.83    
  1720.00   11.016    -90.374      8.46      58.95     5.9042E-04 1.0526E+04       25.07    
  1730.00   11.100    -90.964      8.47      59.00     5.9263E-04 1.0573E+04       25.31    
  1740.00   11.185    -91.554      8.47      59.05     5.9483E-04 1.0620E+04       25.55    
  1750.00   11.270    -92.145      8.48      59.09     5.9703E-04 1.0667E+04       25.79    
  1760.00   11.355    -92.736      8.48      59.14     5.9923E-04 1.0714E+04       26.04    
  1770.00   11.439    -93.328      8.49      59.19     6.0141E-04 1.0761E+04       26.28    
  1780.00   11.524    -93.920      8.50      59.24     6.0360E-04 1.0808E+04       26.53    
  1790.00   11.609    -94.512      8.50      59.29     6.0578E-04 1.0855E+04       26.78    
  1800.00   11.694    -95.105      8.51      59.33     6.0795E-04 1.0901E+04       27.03    
  1810.00   11.780    -95.699      8.51      59.38     6.1012E-04 1.0948E+04       27.28    
  1820.00   11.865    -96.293      8.52      59.43     6.1229E-04 1.0994E+04       27.52    
  1830.00   11.950    -96.887      8.52      59.47     6.1445E-04 1.1041E+04       27.78    
  1840.00   12.035    -97.482      8.53      59.52     6.1661E-04 1.1087E+04       28.03    
  1850.00   12.120    -98.078      8.53      59.57     6.1876E-04 1.1133E+04       28.28    
  1860.00   12.206    -98.674      8.54      59.61     6.2091E-04 1.1179E+04       28.53    
  1870.00   12.291    -99.270      8.54      59.66     6.2306E-04 1.1225E+04       28.79    
  1880.00   12.377    -99.867      8.55      59.70     6.2520E-04 1.1271E+04       29.04    
  1890.00   12.462   -100.464      8.55      59.75     6.2733E-04 1.1317E+04       29.30    
  1900.00   12.548   -101.062      8.56      59.79     6.2947E-04 1.1363E+04       29.56    
  1910.00   12.633   -101.660      8.56      59.84     6.3159E-04 1.1408E+04       29.81    
  1920.00   12.719   -102.259      8.57      59.88     6.3372E-04 1.1454E+04       30.07    
  1930.00   12.805   -102.858      8.57      59.93     6.3584E-04 1.1500E+04       30.33    
  1940.00   12.891   -103.457      8.58      59.97     6.3795E-04 1.1545E+04       30.59    
  1950.00   12.976   -104.057      8.58      60.02     6.4006E-04 1.1590E+04       30.85    
  1960.00   13.062   -104.658      8.59      60.06     6.4217E-04 1.1636E+04       31.11    
  1970.00   13.148   -105.258      8.59      60.10     6.4428E-04 1.1681E+04       31.38    
  1980.00   13.234   -105.860      8.60      60.15     6.4638E-04 1.1726E+04       31.64    
  1990.00   13.320   -106.461      8.60      60.19     6.4847E-04 1.1771E+04       31.91    
  2000.00   13.406   -107.064      8.61      60.23     6.5056E-04 1.1816E+04       32.17    
  2010.00   13.492   -107.666      8.61      60.28     6.5265E-04 1.1860E+04       32.44    
  2020.00   13.578   -108.269      8.62      60.32     6.5474E-04 1.1905E+04       32.70    
  2030.00   13.665   -108.873      8.62      60.36     6.5682E-04 1.1950E+04       32.97    
  2040.00   13.751   -109.476      8.62      60.41     6.5889E-04 1.1994E+04       33.24    
  2050.00   13.837   -110.081      8.63      60.45     6.6097E-04 1.2039E+04       33.51    
  2060.00   13.923   -110.685      8.63      60.49     6.6304E-04 1.2083E+04       33.78    
  2070.00   14.010   -111.290      8.64      60.53     6.6510E-04 1.2128E+04       34.05    
  2080.00   14.096   -111.896      8.64      60.57     6.6717E-04 1.2172E+04       34.33    
  2090.00   14.182   -112.502      8.64      60.61     6.6923E-04 1.2216E+04       34.60    
  2100.00   14.269   -113.108      8.65      60.66     6.7128E-04 1.2260E+04       34.87    
  2110.00   14.355   -113.715      8.65      60.70     6.7333E-04 1.2304E+04       35.15    
  2120.00   14.442   -114.322      8.66      60.74     6.7538E-04 1.2348E+04       35.42    
  2130.00   14.529   -114.930      8.66      60.78     6.7743E-04 1.2392E+04       35.70    
  2140.00   14.615   -115.538      8.66      60.82     6.7947E-04 1.2436E+04       35.98    
  2150.00   14.702   -116.146      8.67      60.86     6.8150E-04 1.2479E+04       36.25    
  2160.00   14.789   -116.755      8.67      60.90     6.8354E-04 1.2523E+04       36.53    
  2170.00   14.875   -117.364      8.67      60.94     6.8557E-04 1.2567E+04       36.81    
  2180.00   14.962   -117.974      8.68      60.98     6.8760E-04 1.2610E+04       37.09    
  2190.00   15.049   -118.584      8.68      61.02     6.8962E-04 1.2653E+04       37.38    
  2200.00   15.136   -119.194      8.68      61.06     6.9164E-04 1.2697E+04       37.66    
  2210.00   15.222   -119.805      8.69      61.10     6.9366E-04 1.2740E+04       37.94    
  2220.00   15.309   -120.416      8.69      61.14     6.9567E-04 1.2783E+04       38.22    
  2230.00   15.396   -121.028      8.70      61.18     6.9769E-04 1.2826E+04       38.51    
  2240.00   15.483   -121.640      8.70      61.22     6.9969E-04 1.2869E+04       38.80    
  2250.00   15.570   -122.252      8.70      61.25     7.0170E-04 1.2912E+04       39.08    
  2260.00   15.657   -122.865      8.70      61.29     7.0370E-04 1.2955E+04       39.37    
  2270.00   15.744   -123.478      8.71      61.33     7.0570E-04 1.2998E+04       39.66    
  2280.00   15.831   -124.091      8.71      61.37     7.0769E-04 1.3040E+04       39.95    
  2290.00   15.919   -124.705      8.71      61.41     7.0969E-04 1.3083E+04       40.24    
  2300.00   16.006   -125.320      8.72      61.45     7.1167E-04 1.3126E+04       40.53    
  2310.00   16.093   -125.934      8.72      61.48     7.1366E-04 1.3168E+04       40.82    
  2320.00   16.180   -126.549      8.72      61.52     7.1564E-04 1.3210E+04       41.11    
  2330.00   16.267   -127.165      8.73      61.56     7.1762E-04 1.3253E+04       41.40    
  2340.00   16.355   -127.780      8.73      61.60     7.1960E-04 1.3295E+04       41.70    
  2350.00   16.442   -128.397      8.73      61.63     7.2157E-04 1.3337E+04       41.99    
  2360.00   16.529   -129.013      8.74      61.67     7.2354E-04 1.3379E+04       42.29    
  2370.00   16.617   -129.630      8.74      61.71     7.2551E-04 1.3421E+04       42.58    
  2380.00   16.704   -130.247      8.74      61.74     7.2748E-04 1.3463E+04       42.88    
  2390.00   16.792   -130.865      8.74      61.78     7.2944E-04 1.3505E+04       43.18    
  2400.00   16.879   -131.483      8.75      61.82     7.3140E-04 1.3547E+04       43.48    
  2410.00   16.966   -132.101      8.75      61.85     7.3335E-04 1.3589E+04       43.78    
  2420.00   17.054   -132.720      8.75      61.89     7.3531E-04 1.3630E+04       44.08    
  2430.00   17.142   -133.339      8.75      61.93     7.3726E-04 1.3672E+04       44.38    
  2440.00   17.229   -133.958      8.76      61.96     7.3921E-04 1.3713E+04       44.68    
  2450.00   17.317   -134.578      8.76      62.00     7.4115E-04 1.3755E+04       44.98    
  2460.00   17.404   -135.198      8.76      62.03     7.4309E-04 1.3796E+04       45.29    
  2470.00   17.492   -135.819      8.76      62.07     7.4503E-04 1.3837E+04       45.59    
  2480.00   17.580   -136.440      8.77      62.10     7.4697E-04 1.3879E+04       45.90    
  2490.00   17.667   -137.061      8.77      62.14     7.4890E-04 1.3920E+04       46.20    
  2500.00   17.755   -137.683      8.77      62.17     7.5083E-04 1.3961E+04       46.51    
  2510.00   17.843   -138.304      8.77      62.21     7.5276E-04 1.4002E+04       46.82    
  2520.00   17.930   -138.927      8.78      62.24     7.5469E-04 1.4043E+04       47.12    
  2530.00   18.018   -139.549      8.78      62.28     7.5661E-04 1.4084E+04       47.43    
  2540.00   18.106   -140.172      8.78      62.31     7.5853E-04 1.4125E+04       47.74    
  2550.00   18.194   -140.796      8.78      62.35     7.6045E-04 1.4165E+04       48.05    
  2560.00   18.282   -141.419      8.79      62.38     7.6236E-04 1.4206E+04       48.37    
  2570.00   18.370   -142.043      8.79      62.42     7.6428E-04 1.4247E+04       48.68    
  2580.00   18.457   -142.668      8.79      62.45     7.6619E-04 1.4287E+04       48.99    
  2590.00   18.545   -143.292      8.79      62.49     7.6809E-04 1.4328E+04       49.31    
  2600.00   18.633   -143.917      8.79      62.52     7.7000E-04 1.4368E+04       49.62    
  2610.00   18.721   -144.543      8.80      62.55     7.7190E-04 1.4408E+04       49.94    
  2620.00   18.809   -145.168      8.80      62.59     7.7380E-04 1.4448E+04       50.25    
  2630.00   18.897   -145.794      8.80      62.62     7.7570E-04 1.4489E+04       50.57    
  2640.00   18.985   -146.421      8.80      62.65     7.7759E-04 1.4529E+04       50.89    
  2650.00   19.073   -147.048      8.80      62.69     7.7949E-04 1.4569E+04       51.21    
  2660.00   19.161   -147.675      8.81      62.72     7.8138E-04 1.4609E+04       51.53    
  2670.00   19.249   -148.302      8.81      62.75     7.8326E-04 1.4649E+04       51.85    
  2680.00   19.337   -148.930      8.81      62.79     7.8515E-04 1.4689E+04       52.17    
  2690.00   19.425   -149.558      8.81      62.82     7.8703E-04 1.4728E+04       52.49    
  2700.00   19.514   -150.186      8.81      62.85     7.8891E-04 1.4768E+04       52.81    
  2710.00   19.602   -150.815      8.82      62.88     7.9079E-04 1.4808E+04       53.13    
  2720.00   19.690   -151.444      8.82      62.92     7.9266E-04 1.4847E+04       53.46    
  2730.00   19.778   -152.073      8.82      62.95     7.9454E-04 1.4887E+04       53.78    
  2740.00   19.866   -152.703      8.82      62.98     7.9641E-04 1.4926E+04       54.11    
  2750.00   19.955   -153.333      8.82      63.01     7.9827E-04 1.4966E+04       54.44    
  2760.00   20.043   -153.963      8.82      63.05     8.0014E-04 1.5005E+04       54.76    
  2770.00   20.131   -154.594      8.83      63.08     8.0200E-04 1.5044E+04       55.09    
  2780.00   20.219   -155.225      8.83      63.11     8.0387E-04 1.5083E+04       55.42    
  2790.00   20.308   -155.856      8.83      63.14     8.0572E-04 1.5123E+04       55.75    
  2800.00   20.396   -156.487      8.83      63.17     8.0758E-04 1.5162E+04       56.08    
  2810.00   20.484   -157.119      8.83      63.20     8.0944E-04 1.5201E+04       56.41    
  2820.00   20.573   -157.751      8.83      63.24     8.1129E-04 1.5240E+04       56.74    
  2830.00   20.661   -158.384      8.84      63.27     8.1314E-04 1.5278E+04       57.08    
  2840.00   20.749   -159.017      8.84      63.30     8.1499E-04 1.5317E+04       57.41    
  2850.00   20.838   -159.650      8.84      63.33     8.1683E-04 1.5356E+04       57.74    
  2860.00   20.926   -160.283      8.84      63.36     8.1867E-04 1.5395E+04       58.08    
  2870.00   21.014   -160.917      8.84      63.39     8.2052E-04 1.5433E+04       58.42    
  2880.00   21.103   -161.551      8.84      63.42     8.2235E-04 1.5472E+04       58.75    
  2890.00   21.191   -162.186      8.84      63.45     8.2419E-04 1.5510E+04       59.09    
  2900.00   21.280   -162.820      8.85      63.48     8.2603E-04 1.5549E+04       59.43    
  2910.00   21.368   -163.455      8.85      63.51     8.2786E-04 1.5587E+04       59.77    
  2920.00   21.457   -164.090      8.85      63.54     8.2969E-04 1.5625E+04       60.11    
  2930.00   21.545   -164.726      8.85      63.57     8.3152E-04 1.5664E+04       60.45    
  2940.00   21.634   -165.362      8.85      63.60     8.3334E-04 1.5702E+04       60.79    
  2950.00   21.722   -165.998      8.85      63.63     8.3517E-04 1.5740E+04       61.13    
  2960.00   21.811   -166.635      8.85      63.66     8.3699E-04 1.5778E+04       61.47    
  2970.00   21.899   -167.271      8.86      63.69     8.3881E-04 1.5816E+04       61.82    
  2980.00   21.988   -167.908      8.86      63.72     8.4063E-04 1.5854E+04       62.16    
  2990.00   22.076   -168.546      8.86      63.75     8.4244E-04 1.5892E+04       62.51    
  3000.00   22.165   -169.184      8.86      63.78     8.4426E-04 1.5930E+04       62.85    
